# Instrument line shape
# Line start [nm]: 300.8	Line End [nm]: 303.6
# Wavelength [nm]	Intensity [DN]
0.000000000000000000e+00 1.287741794070907698e-02
8.518886090001842604e-02 1.430215354265987338e-02
1.703611479999835865e-01 1.583648419091456677e-02
2.555168613000091682e-01 1.737081483916927058e-02
3.406560007999814843e-01 1.556249657515480257e-02
4.257785664999573783e-01 2.131623650610992363e-02
5.108845583999936935e-01 2.920707983999123666e-02
5.959739764999767431e-01 4.767384514219957098e-02
6.810468207999633705e-01 8.038796646391582756e-02
7.661030912999535758e-01 1.303633075784974560e-01
8.511427879999473589e-01 1.991341991341991358e-01
9.361659108999447199e-01 3.237437667817414932e-01
1.021172459999945659e+00 4.871499808208669680e-01
1.106162435300007019e+00 6.733519644912050461e-01
1.191135836799958270e+00 8.669516137870567629e-01
1.276092664500026785e+00 9.635048495807989610e-01
1.361032918399985192e+00 1.000000000000000000e+00
1.445956598500004020e+00 9.410378650884979601e-01
1.530863704799969582e+00 8.185106033207298903e-01
1.615754237299995566e+00 6.289111732149705869e-01
1.700628195999968284e+00 4.212285604690667595e-01
1.785485580900001423e+00 2.732752479587922667e-01
1.870326391999981297e+00 1.697079292016000496e-01
1.955150629299964748e+00 1.088826785029316652e-01
2.039958292799951778e+00 7.540139185708805147e-02
2.124749382499999228e+00 5.452353553619375404e-02
2.209523898399993413e+00 4.268727053537179489e-02
2.294281840499991176e+00 3.046742287248616066e-02
2.379023208799935674e+00 2.301495972382048075e-02
2.463748003299940592e+00 1.950791824209545736e-02
2.548456224000005932e+00 1.748040988547317626e-02
2.633147870899961163e+00 1.720642226971341379e-02
2.717822943999976815e+00 1.638445942243410558e-02
2.802481443299996045e+00 1.342539317222861059e-02
